SpectraSuite Data File
++++++++++++++++++++++++++++++++++++
Date: Tue Oct 22 14:27:23 EDT 2013
User: lab3
Dark Spectrum Present: No
Reference Spectrum Present: No
Number of Sampled Component Spectra: 1
Spectrometers: USB2E7196
Integration Time (usec): 84000 (USB2E7196)
Spectra Averaged: 30 (USB2E7196)
Boxcar Smoothing: 10 (USB2E7196)
Correct for Electrical Dark: No (USB2E7196)
Strobe/Lamp Enabled: No (USB2E7196)
Correct for Detector Non-linearity: No (USB2E7196)
Correct for Stray Light: No (USB2E7196)
Number of Pixels in Processed Spectrum: 2048
>>>>>Begin Processed Spectral Data<<<<<
339.09	0.00
339.48	216.10
339.86	217.90
340.24	218.60
340.63	220.57
341.01	225.37
341.39	222.90
341.78	224.43
342.16	226.37
342.54	226.03
342.93	214.57
343.31	225.41
343.69	225.90
344.07	226.34
344.46	226.75
344.84	227.11
345.22	227.17
345.60	227.33
345.99	227.43
346.37	227.46
346.75	227.46
347.13	227.39
347.52	227.33
347.90	227.43
348.28	227.40
348.66	227.40
349.05	227.28
349.43	227.27
349.81	227.23
350.19	227.22
350.57	227.24
350.96	227.23
351.34	227.25
351.72	227.34
352.10	227.40
352.48	227.40
352.87	227.38
353.25	227.40
353.63	227.44
354.01	227.50
354.39	227.59
354.77	227.68
355.15	227.80
355.54	227.86
355.92	227.80
356.30	227.85
356.68	228.02
357.06	228.12
357.44	228.15
357.82	228.22
358.20	228.45
358.58	228.43
358.97	228.50
359.35	228.57
359.73	228.65
360.11	228.65
360.49	228.74
360.87	228.81
361.25	228.90
361.63	229.06
362.01	229.16
362.39	229.18
362.77	229.21
363.15	229.30
363.53	229.33
363.91	229.31
364.29	229.32
364.67	229.17
365.05	229.18
365.43	229.28
365.81	229.31
366.19	229.30
366.57	229.46
366.95	229.51
367.33	229.49
367.71	229.51
368.09	229.57
368.47	229.60
368.85	229.53
369.23	229.60
369.61	229.56
369.99	229.58
370.37	229.57
370.75	229.67
371.13	229.58
371.51	229.55
371.89	229.58
372.27	229.63
372.65	229.59
373.03	229.51
373.41	229.41
373.78	229.40
374.16	229.18
374.54	229.05
374.92	228.93
375.30	228.83
375.68	228.70
376.06	228.66
376.44	228.57
376.82	228.56
377.19	228.50
377.57	228.43
377.95	228.31
378.33	228.28
378.71	228.10
379.09	228.10
379.47	228.09
379.84	228.02
380.22	227.94
380.60	227.89
380.98	227.91
381.36	227.82
381.73	227.71
382.11	227.68
382.49	227.64
382.87	227.57
383.25	227.57
383.62	227.75
384.00	227.65
384.38	227.63
384.76	227.61
385.13	227.58
385.51	227.56
385.89	227.42
386.27	227.31
386.64	227.33
387.02	227.30
387.40	227.18
387.78	227.17
388.15	227.05
388.53	226.98
388.91	226.90
389.29	226.86
389.66	226.87
390.04	226.83
390.42	226.80
390.79	226.85
391.17	226.81
391.55	226.49
391.92	226.48
392.30	226.42
392.68	226.34
393.05	226.34
393.43	226.26
393.81	226.34
394.18	226.36
394.56	226.31
394.94	226.35
395.31	226.38
395.69	226.46
396.06	226.52
396.44	226.54
396.82	226.53
397.19	226.69
397.57	226.68
397.95	226.73
398.32	226.70
398.70	226.64
399.07	226.70
399.45	226.73
399.82	226.71
400.20	226.70
400.58	226.73
400.95	226.63
401.33	226.70
401.70	226.87
402.08	226.86
402.45	226.83
402.83	226.86
403.20	226.85
403.58	226.76
403.95	226.81
404.33	226.84
404.71	226.84
405.08	226.93
405.46	226.92
405.83	226.92
406.21	226.95
406.58	226.94
406.96	226.91
407.33	226.97
407.70	227.02
408.08	227.21
408.45	227.27
408.83	227.30
409.20	227.26
409.58	227.13
409.95	227.11
410.33	227.20
410.70	227.10
411.08	227.12
411.45	227.18
411.82	227.16
412.20	227.21
412.57	227.35
412.95	227.17
413.32	227.20
413.69	227.15
414.07	227.15
414.44	227.20
414.82	227.23
415.19	227.22
415.56	227.18
415.94	227.05
416.31	227.04
416.68	227.07
417.06	227.13
417.43	227.18
417.81	227.21
418.18	227.18
418.55	227.19
418.93	227.21
419.30	227.12
419.67	227.11
420.04	227.10
420.42	227.03
420.79	227.23
421.16	227.26
421.54	227.39
421.91	227.37
422.28	227.32
422.66	227.28
423.03	227.49
423.40	227.50
423.77	227.47
424.15	227.44
424.52	227.46
424.89	227.42
425.26	227.29
425.64	227.23
426.01	227.16
426.38	227.11
426.75	227.13
427.13	227.14
427.50	227.09
427.87	226.94
428.24	226.83
428.61	226.60
428.99	226.67
429.36	226.53
429.73	226.56
430.10	226.54
430.47	226.57
430.85	226.31
431.22	226.27
431.59	226.46
431.96	226.40
432.33	226.33
432.70	226.35
433.08	226.37
433.45	226.38
433.82	226.38
434.19	226.38
434.56	226.39
434.93	226.32
435.30	226.34
435.68	226.39
436.05	226.36
436.42	226.33
436.79	226.32
437.16	226.33
437.53	226.25
437.90	226.27
438.27	226.32
438.64	226.37
439.01	226.41
439.38	226.22
439.75	226.24
440.13	226.20
440.50	226.14
440.87	226.12
441.24	226.15
441.61	226.18
441.98	226.19
442.35	226.15
442.72	226.23
443.09	226.34
443.46	226.28
443.83	226.32
444.20	226.36
444.57	226.28
444.94	226.32
445.31	226.39
445.68	226.75
446.05	226.68
446.42	226.65
446.79	226.75
447.16	226.80
447.53	226.87
447.90	226.93
448.27	226.98
448.64	227.08
449.01	227.13
449.37	227.15
449.74	227.18
450.11	227.55
450.48	227.53
450.85	227.39
451.22	227.48
451.59	227.62
451.96	227.65
452.33	227.68
452.70	227.70
453.07	227.71
453.43	227.39
453.80	227.48
454.17	227.59
454.54	227.57
454.91	227.63
455.28	227.61
455.65	227.61
456.02	228.10
456.38	228.08
456.75	228.09
457.12	228.11
457.49	228.14
457.86	227.85
458.23	227.99
458.59	228.10
458.96	228.17
459.33	228.12
459.70	228.11
460.07	228.17
460.43	228.18
460.80	228.26
461.17	228.38
461.54	228.37
461.91	228.29
462.27	228.23
462.64	228.17
463.01	228.22
463.38	228.31
463.74	227.86
464.11	227.83
464.48	227.85
464.85	227.84
465.21	227.94
465.58	227.93
465.95	227.86
466.32	227.85
466.68	227.83
467.05	227.83
467.42	227.84
467.78	227.80
468.15	227.83
468.52	227.86
468.88	227.74
469.25	227.67
469.62	227.73
469.98	227.70
470.35	227.69
470.72	227.67
471.08	227.54
471.45	227.50
471.82	227.55
472.18	227.55
472.55	227.53
472.92	227.36
473.28	227.28
473.65	227.24
474.02	227.25
474.38	227.25
474.75	227.22
475.11	227.23
475.48	227.18
475.85	227.10
476.21	226.95
476.58	226.92
476.94	226.93
477.31	226.87
477.67	226.88
478.04	226.83
478.41	226.79
478.77	227.02
479.14	227.01
479.50	227.03
479.87	227.00
480.23	226.97
480.60	226.98
480.96	227.02
481.33	227.09
481.69	226.98
482.06	226.99
482.42	227.03
482.79	227.05
483.15	227.06
483.52	227.13
483.88	227.18
484.25	227.22
484.61	227.23
484.98	227.26
485.34	227.36
485.71	227.39
486.07	227.38
486.44	227.17
486.80	227.20
487.17	227.12
487.53	227.18
487.90	227.22
488.26	227.36
488.62	227.43
488.99	227.37
489.35	227.51
489.72	227.49
490.08	227.47
490.44	227.41
490.81	227.48
491.17	227.44
491.54	227.47
491.90	227.51
492.26	227.61
492.63	227.55
492.99	227.50
493.36	227.52
493.72	227.55
494.08	227.56
494.45	227.52
494.81	227.62
495.17	227.60
495.54	227.69
495.90	227.61
496.26	227.58
496.63	227.64
496.99	227.58
497.35	227.58
497.72	227.62
498.08	227.65
498.44	227.64
498.80	227.69
499.17	227.66
499.53	227.62
499.89	227.58
500.26	227.67
500.62	227.72
500.98	227.80
501.34	227.86
501.71	227.93
502.07	227.95
502.43	227.91
502.79	227.93
503.16	227.80
503.52	227.82
503.88	227.81
504.24	227.78
504.60	227.80
504.97	227.82
505.33	227.77
505.69	227.89
506.05	227.85
506.41	227.81
506.78	227.78
507.14	227.75
507.50	227.66
507.86	227.62
508.22	227.54
508.59	227.49
508.95	227.43
509.31	227.51
509.67	227.50
510.03	227.46
510.39	227.41
510.75	227.47
511.12	227.45
511.48	227.46
511.84	227.40
512.20	227.37
512.56	227.33
512.92	227.35
513.28	227.24
513.64	227.19
514.00	227.21
514.37	227.25
514.73	227.28
515.09	227.37
515.45	227.33
515.81	227.37
516.17	227.35
516.53	227.31
516.89	227.14
517.25	227.18
517.61	227.23
517.97	227.16
518.33	227.12
518.69	227.17
519.05	227.20
519.41	227.27
519.77	227.35
520.13	227.39
520.49	227.34
520.85	228.02
521.21	228.11
521.57	228.10
521.93	228.03
522.29	228.06
522.65	227.95
523.01	227.99
523.37	227.92
523.73	227.89
524.09	227.88
524.45	227.90
524.81	227.79
525.17	227.78
525.53	227.86
525.89	227.88
526.25	227.80
526.61	227.75
526.97	227.71
527.33	227.70
527.68	227.87
528.04	227.88
528.40	227.23
528.76	227.21
529.12	227.19
529.48	227.27
529.84	227.23
530.20	227.37
530.56	227.42
530.91	227.56
531.27	227.56
531.63	227.55
531.99	227.59
532.35	227.68
532.71	227.69
533.07	227.70
533.42	227.96
533.78	227.99
534.14	228.01
534.50	227.97
534.86	227.96
535.21	227.80
535.57	227.83
535.93	227.82
536.29	228.03
536.65	228.07
537.00	228.09
537.36	228.20
537.72	228.19
538.08	228.27
538.44	228.29
538.79	228.42
539.15	228.51
539.51	228.63
539.87	228.69
540.22	228.83
540.58	228.89
540.94	228.73
541.29	228.81
541.65	228.87
542.01	229.05
542.37	229.10
542.72	229.18
543.08	229.23
543.44	229.33
543.79	229.13
544.15	229.20
544.51	229.23
544.87	229.21
545.22	229.18
545.58	229.11
545.94	229.06
546.29	229.05
546.65	229.07
547.01	228.98
547.36	228.98
547.72	228.86
548.07	228.80
548.43	228.79
548.79	228.80
549.14	228.76
549.50	228.70
549.86	228.62
550.21	228.59
550.57	228.59
550.92	228.54
551.28	228.64
551.64	228.61
551.99	228.59
552.35	228.50
552.70	228.43
553.06	228.48
553.41	228.44
553.77	228.47
554.13	228.42
554.48	228.46
554.84	228.43
555.19	228.43
555.55	228.59
555.90	228.53
556.26	228.49
556.61	228.47
556.97	228.42
557.32	228.41
557.68	228.44
558.03	228.42
558.39	228.38
558.74	228.52
559.10	228.41
559.45	228.35
559.81	228.38
560.16	228.39
560.52	228.25
560.87	228.26
561.23	228.17
561.58	228.35
561.94	228.24
562.29	228.22
562.64	228.20
563.00	228.04
563.35	228.02
563.71	227.99
564.06	227.90
564.42	227.89
564.77	227.89
565.12	227.85
565.48	228.00
565.83	228.01
566.19	227.74
566.54	227.79
566.89	227.81
567.25	227.85
567.60	227.98
567.96	228.23
568.31	228.28
568.66	228.36
569.02	228.12
569.37	228.10
569.72	228.09
570.08	228.11
570.43	228.04
570.78	228.06
571.14	228.09
571.49	228.18
571.84	228.19
572.20	228.17
572.55	228.15
572.90	227.95
573.26	227.93
573.61	227.92
573.96	227.96
574.31	227.99
574.67	227.98
575.02	227.89
575.37	227.74
575.72	227.66
576.08	227.57
576.43	227.63
576.78	227.67
577.13	227.66
577.49	227.65
577.84	227.67
578.19	227.70
578.54	227.72
578.90	227.75
579.25	227.78
579.60	227.81
579.95	227.80
580.30	227.89
580.66	227.93
581.01	227.96
581.36	227.93
581.71	227.92
582.06	228.00
582.42	228.05
582.77	228.00
583.12	228.03
583.47	228.06
583.82	228.12
584.17	228.17
584.53	228.28
584.88	228.30
585.23	228.45
585.58	228.46
585.93	228.43
586.28	228.47
586.63	228.48
586.98	228.52
587.34	228.59
587.69	228.54
588.04	228.57
588.39	228.63
588.74	228.62
589.09	228.74
589.44	228.66
589.79	228.64
590.14	228.66
590.49	228.67
590.84	228.70
591.19	228.70
591.54	228.80
591.89	228.77
592.25	228.98
592.60	228.88
592.95	228.93
593.30	228.94
593.65	228.95
594.00	228.88
594.35	229.42
594.70	229.38
595.05	229.39
595.40	229.33
595.75	229.25
596.10	229.28
596.45	229.18
596.80	229.20
597.15	229.20
597.50	229.18
597.85	229.27
598.19	229.27
598.54	229.28
598.89	229.19
599.24	229.18
599.59	229.02
599.94	229.07
600.29	229.03
600.64	229.03
600.99	229.10
601.34	229.14
601.69	228.58
602.04	228.51
602.39	228.47
602.74	228.59
603.08	228.59
603.43	228.62
603.78	228.68
604.13	228.63
604.48	228.61
604.83	228.66
605.18	228.62
605.53	228.58
605.87	228.55
606.22	228.57
606.57	228.57
606.92	228.52
607.27	228.50
607.62	228.54
607.96	228.65
608.31	228.60
608.66	228.73
609.01	228.79
609.36	228.88
609.70	228.97
610.05	228.90
610.40	229.07
610.75	229.09
611.10	229.05
611.44	229.09
611.79	229.13
612.14	229.22
612.49	229.16
612.83	229.24
613.18	229.21
613.53	229.20
613.88	229.25
614.22	229.18
614.57	229.13
614.92	229.00
615.27	228.95
615.61	228.88
615.96	228.80
616.31	228.73
616.65	228.73
617.00	228.65
617.35	228.66
617.70	228.47
618.04	228.41
618.39	228.38
618.74	228.43
619.08	228.35
619.43	228.27
619.78	228.25
620.12	228.13
620.47	228.11
620.82	228.09
621.16	227.98
621.51	228.10
621.85	228.09
622.20	228.18
622.55	228.09
622.89	228.08
623.24	228.05
623.59	228.05
623.93	228.06
624.28	228.07
624.62	228.28
624.97	228.50
625.32	228.48
625.66	228.50
626.01	228.43
626.35	228.47
626.70	228.42
627.04	228.48
627.39	228.53
627.73	228.65
628.08	228.64
628.43	228.63
628.77	228.55
629.12	228.51
629.46	228.54
629.81	228.81
630.15	228.85
630.50	228.85
630.84	228.81
631.19	228.79
631.53	228.78
631.88	228.51
632.22	228.35
632.57	228.36
632.91	228.35
633.26	228.43
633.60	228.40
633.95	228.40
634.29	228.33
634.64	228.36
634.98	228.21
635.32	228.27
635.67	228.27
636.01	228.28
636.36	228.29
636.70	228.24
637.05	227.96
637.39	227.88
637.73	227.88
638.08	227.95
638.42	227.89
638.77	227.96
639.11	227.95
639.45	227.93
639.80	227.94
640.14	227.94
640.49	227.82
640.83	227.83
641.17	227.85
641.52	227.85
641.86	227.85
642.20	227.96
642.55	227.88
642.89	227.91
643.23	227.91
643.58	228.03
643.92	228.00
644.26	228.00
644.61	228.01
644.95	227.98
645.29	227.95
645.64	228.00
645.98	227.85
646.32	227.95
646.66	227.96
647.01	227.91
647.35	227.87
647.69	227.99
648.04	228.03
648.38	228.05
648.72	228.05
649.06	227.95
649.41	227.91
649.75	227.92
650.09	227.93
650.43	227.91
650.78	227.81
651.12	227.83
651.46	227.83
651.80	227.86
652.14	227.85
652.49	227.83
652.83	227.80
653.17	227.92
653.51	227.76
653.85	227.78
654.20	227.78
654.54	227.78
654.88	227.67
655.22	227.69
655.56	227.65
655.90	227.67
656.25	227.72
656.59	227.70
656.93	227.72
657.27	227.74
657.61	227.65
657.95	227.67
658.29	227.65
658.64	227.71
658.98	227.69
659.32	227.64
659.66	227.65
660.00	227.67
660.34	227.64
660.68	227.71
661.02	227.64
661.36	227.62
661.70	227.60
662.05	227.60
662.39	227.62
662.73	227.68
663.07	227.74
663.41	227.79
663.75	227.74
664.09	227.75
664.43	227.66
664.77	227.74
665.11	227.64
665.45	227.60
665.79	227.66
666.13	227.64
666.47	227.64
666.81	227.60
667.15	227.53
667.49	227.52
667.83	227.58
668.17	227.59
668.51	227.62
668.85	227.63
669.19	227.75
669.53	227.73
669.87	227.68
670.21	227.60
670.55	227.53
670.89	227.68
671.23	227.66
671.57	227.70
671.91	227.69
672.25	227.72
672.58	227.86
672.92	227.76
673.26	227.80
673.60	227.84
673.94	227.95
674.28	227.96
674.62	228.03
674.96	228.00
675.30	228.00
675.64	227.98
675.97	227.98
676.31	227.91
676.65	227.84
676.99	227.89
677.33	227.90
677.67	227.90
678.01	227.78
678.34	227.76
678.68	227.72
679.02	227.70
679.36	227.71
679.70	227.57
680.04	227.55
680.37	227.52
680.71	227.50
681.05	227.50
681.39	227.57
681.73	227.52
682.06	227.49
682.40	227.54
682.74	227.56
683.08	227.69
683.42	227.67
683.75	227.70
684.09	227.63
684.43	227.65
684.77	227.67
685.10	227.71
685.44	227.76
685.78	227.79
686.12	227.77
686.45	227.77
686.79	227.83
687.13	227.86
687.46	227.88
687.80	227.97
688.14	227.92
688.48	227.90
688.81	227.92
689.15	227.98
689.49	227.92
689.82	227.92
690.16	227.87
690.50	227.90
690.83	227.93
691.17	227.93
691.51	227.95
691.84	227.99
692.18	227.96
692.52	227.94
692.85	228.01
693.19	228.14
693.52	228.19
693.86	228.20
694.20	228.23
694.53	228.23
694.87	228.14
695.21	228.08
695.54	228.08
695.88	228.09
696.21	228.00
696.55	228.07
696.88	228.10
697.22	228.03
697.56	228.07
697.89	228.07
698.23	228.17
698.56	228.11
698.90	228.11
699.23	228.11
699.57	228.11
699.90	228.12
700.24	228.02
700.58	228.06
700.91	228.10
701.25	228.25
701.58	228.30
701.92	228.40
702.25	228.44
702.59	228.36
702.92	228.36
703.26	228.45
703.59	228.43
703.93	228.56
704.26	228.61
704.60	228.53
704.93	228.51
705.26	228.44
705.60	228.48
705.93	228.44
706.27	228.58
706.60	228.67
706.94	228.71
707.27	228.72
707.61	228.69
707.94	228.70
708.27	228.56
708.61	228.53
708.94	228.43
709.28	228.43
709.61	228.48
709.94	228.44
710.28	228.40
710.61	228.36
710.95	228.21
711.28	228.37
711.61	228.41
711.95	228.43
712.28	228.36
712.61	228.37
712.95	228.50
713.28	228.43
713.61	228.37
713.95	228.29
714.28	228.31
714.61	228.23
714.95	228.17
715.28	228.13
715.61	228.18
715.95	228.21
716.28	228.20
716.61	228.17
716.95	228.17
717.28	228.14
717.61	228.17
717.94	228.17
718.28	227.97
718.61	227.93
718.94	227.91
719.27	227.89
719.61	227.89
719.94	227.85
720.27	227.82
720.60	227.76
720.94	227.73
721.27	227.69
721.60	227.81
721.93	227.83
722.27	227.90
722.60	227.89
722.93	227.91
723.26	227.93
723.59	227.93
723.93	228.02
724.26	228.08
724.59	228.09
724.92	228.10
725.25	228.20
725.59	228.20
725.92	228.19
726.25	228.22
726.58	228.24
726.91	228.14
727.24	228.12
727.57	228.17
727.91	228.15
728.24	228.14
728.57	228.08
728.90	228.07
729.23	228.00
729.56	228.06
729.89	228.02
730.22	228.02
730.55	228.03
730.89	227.94
731.22	227.93
731.55	227.93
731.88	227.90
732.21	227.82
732.54	227.81
732.87	227.88
733.20	227.87
733.53	227.85
733.86	227.90
734.19	227.93
734.52	227.96
734.85	228.08
735.18	228.06
735.51	228.07
735.84	228.06
736.17	228.04
736.50	227.90
736.83	228.14
737.16	228.17
737.49	228.19
737.82	228.16
738.15	228.12
738.48	228.11
738.81	228.07
739.14	228.03
739.47	228.06
739.80	228.03
740.13	228.12
740.46	228.06
740.79	228.05
741.12	227.99
741.45	227.92
741.78	227.82
742.11	227.90
742.44	227.90
742.77	227.93
743.10	227.95
743.43	227.90
743.75	227.69
744.08	227.92
744.41	227.87
744.74	227.94
745.07	227.91
745.40	227.93
745.73	228.09
746.06	228.12
746.39	228.12
746.71	228.04
747.04	227.97
747.37	227.98
747.70	228.03
748.03	228.02
748.36	228.10
748.68	228.10
749.01	228.02
749.34	228.02
749.67	228.00
750.00	228.05
750.33	228.30
750.65	228.27
750.98	228.01
751.31	228.02
751.64	228.00
751.97	228.14
752.29	228.10
752.62	227.95
752.95	227.95
753.28	227.92
753.60	227.95
753.93	228.03
754.26	228.08
754.59	227.97
754.91	227.97
755.24	227.96
755.57	228.07
755.90	228.13
756.22	228.12
756.55	228.10
756.88	228.05
757.20	227.89
757.53	227.90
757.86	227.89
758.19	227.90
758.51	227.95
758.84	227.82
759.17	227.84
759.49	227.86
759.82	227.97
760.15	227.98
760.47	227.99
760.80	227.92
761.13	227.96
761.45	228.02
761.78	228.02
762.11	228.04
762.43	227.96
762.76	227.94
763.08	228.01
763.41	228.06
763.74	228.15
764.06	228.13
764.39	228.18
764.71	228.22
765.04	228.24
765.37	228.23
765.69	228.23
766.02	228.26
766.34	228.24
766.67	228.14
767.00	228.23
767.32	228.31
767.65	228.46
767.97	228.41
768.30	228.44
768.62	228.47
768.95	228.41
769.27	228.41
769.60	228.43
769.92	228.41
770.25	228.40
770.57	228.34
770.90	228.37
771.22	228.32
771.55	228.32
771.87	228.31
772.20	228.31
772.52	228.54
772.85	228.78
773.17	228.84
773.50	228.83
773.82	228.77
774.15	228.69
774.47	228.54
774.80	228.54
775.12	228.54
775.45	228.51
775.77	228.51
776.09	228.54
776.42	228.60
776.74	228.62
777.07	228.60
777.39	228.57
777.72	228.52
778.04	228.55
778.36	228.51
778.69	228.56
779.01	228.57
779.33	228.40
779.66	228.16
779.98	228.19
780.31	228.22
780.63	228.35
780.95	228.40
781.28	228.40
781.60	228.34
781.92	228.35
782.25	228.43
782.57	228.43
782.89	228.38
783.22	228.30
783.54	228.25
783.86	228.25
784.19	228.26
784.51	228.36
784.83	228.31
785.16	228.32
785.48	228.30
785.80	228.31
786.12	228.33
786.45	228.26
786.77	228.19
787.09	228.20
787.42	228.13
787.74	228.11
788.06	228.15
788.38	228.19
788.71	228.17
789.03	228.11
789.35	228.16
789.67	228.13
789.99	228.17
790.32	228.15
790.64	228.20
790.96	228.36
791.28	228.28
791.61	228.23
791.93	228.25
792.25	228.25
792.57	228.42
792.89	228.30
793.21	228.38
793.54	228.39
793.86	228.36
794.18	228.33
794.50	228.34
794.82	228.31
795.14	228.32
795.47	228.31
795.79	228.30
796.11	228.25
796.43	228.21
796.75	228.18
797.07	228.18
797.39	228.16
797.71	228.03
798.04	228.00
798.36	227.98
798.68	228.01
799.00	227.97
799.32	227.82
799.64	227.93
799.96	227.87
800.28	227.92
800.60	227.85
800.92	227.85
801.24	227.88
801.56	227.94
801.89	227.90
802.21	227.93
802.53	227.91
802.85	227.98
803.17	228.16
803.49	228.17
803.81	228.18
804.13	228.16
804.45	228.13
804.77	228.19
805.09	228.27
805.41	228.28
805.73	228.25
806.05	228.19
806.37	228.13
806.69	228.18
807.01	228.14
807.33	228.18
807.65	228.14
807.97	228.22
808.28	228.22
808.60	228.23
808.92	228.21
809.24	228.41
809.56	228.35
809.88	228.29
810.20	228.29
810.52	228.36
810.84	228.34
811.16	228.36
811.48	228.38
811.80	228.51
812.12	228.49
812.43	228.57
812.75	228.61
813.07	228.63
813.39	228.60
813.71	228.60
814.03	228.64
814.35	228.61
814.67	228.51
814.98	228.45
815.30	228.44
815.62	228.40
815.94	228.30
816.26	228.37
816.58	228.33
816.89	228.39
817.21	228.33
817.53	228.38
817.85	228.37
818.17	228.32
818.48	228.23
818.80	228.27
819.12	228.22
819.44	228.15
819.76	228.16
820.07	228.17
820.39	228.15
820.71	228.16
821.03	228.21
821.34	228.18
821.66	228.19
821.98	228.22
822.30	228.19
822.61	228.30
822.93	228.21
823.25	228.21
823.57	228.20
823.88	228.26
824.20	228.23
